Rxx(Ohm),ne(cm-2)
17650.828,-1.98186E+13
16800.588,-1.97974E+13
17840.418,-1.97762E+13
18262.586,-1.9755E+13
16719.492,-1.97338E+13
18319.311,-1.97126E+13
18933.564,-1.96914E+13
19458.17,-1.96702E+13
20159.879,-1.9649E+13
18957.994,-1.96278E+13
20274.045,-1.96066E+13
20708.309,-1.95854E+13
20293.891,-1.95642E+13
21467.967,-1.9543E+13
21606.428,-1.95218E+13
19610.354,-1.95006E+13
20382.064,-1.94794E+13
19425.045,-1.94582E+13
19463.266,-1.9437E+13
18516.92,-1.94158E+13
18501.678,-1.93946E+13
19590.746,-1.93734E+13
19344.453,-1.93522E+13
18217.945,-1.9331E+13
18212.23,-1.93098E+13
19823.68,-1.92886E+13
18668.432,-1.92674E+13
19501.258,-1.92462E+13
18630.801,-1.9225E+13
18788,-1.92038E+13
19758.324,-1.91826E+13
18797.236,-1.91614E+13
18811.84,-1.91402E+13
16693.773,-1.9119E+13
17817.658,-1.90978E+13
20556.516,-1.90766E+13
20472.32,-1.90554E+13
20731.924,-1.90342E+13
18100.057,-1.9013E+13
17875.85,-1.89918E+13
18226.023,-1.89707E+13
18328.023,-1.89495E+13
18882.469,-1.89283E+13
17972.916,-1.89071E+13
16706.359,-1.88859E+13
15250.015,-1.88647E+13
15017.248,-1.88435E+13
14205.386,-1.88223E+13
15329.372,-1.88011E+13
16271.497,-1.87799E+13
18963.354,-1.87587E+13
18169.875,-1.87375E+13
17891.402,-1.87163E+13
17275.078,-1.86951E+13
17755.785,-1.86739E+13
16812.836,-1.86527E+13
17119.871,-1.86315E+13
20489,-1.86103E+13
19771.816,-1.85891E+13
19692.131,-1.85679E+13
18615.426,-1.85467E+13
19571.783,-1.85255E+13
19891.799,-1.85043E+13
20435.908,-1.84831E+13
18710.576,-1.84619E+13
19503.027,-1.84407E+13
20439.018,-1.84195E+13
18902.951,-1.83983E+13
16768.076,-1.83771E+13
18282.178,-1.83559E+13
19441.799,-1.83347E+13
22208.945,-1.83135E+13
21088.031,-1.82923E+13
19221.523,-1.82711E+13
18194.186,-1.82499E+13
17936.537,-1.82287E+13
19289.684,-1.82075E+13
17670.322,-1.81863E+13
19566.889,-1.81651E+13
19296.719,-1.81439E+13
18235.395,-1.81227E+13
16252.275,-1.81015E+13
17058.699,-1.80803E+13
16940.924,-1.80592E+13
18112.926,-1.8038E+13
19821.01,-1.80168E+13
23553.242,-1.79956E+13
24195.73,-1.79744E+13
22013.166,-1.79532E+13
20368.537,-1.7932E+13
20527.711,-1.79108E+13
21568.127,-1.78896E+13
20738.178,-1.78684E+13
20536.982,-1.78472E+13
21397.906,-1.7826E+13
22672.924,-1.78048E+13
23256.01,-1.77836E+13
21902.037,-1.77624E+13
20471.164,-1.77412E+13
18290.711,-1.772E+13
22111.736,-1.76988E+13
22602.898,-1.76776E+13
22306.52,-1.76564E+13
25351.107,-1.76352E+13
24937.42,-1.7614E+13
25063.535,-1.75928E+13
23820.51,-1.75716E+13
25893.586,-1.75504E+13
24257.109,-1.75292E+13
24846.018,-1.7508E+13
26503.574,-1.74868E+13
22367.395,-1.74656E+13
21888.352,-1.74444E+13
21104.205,-1.74232E+13
21385.133,-1.7402E+13
22556.348,-1.73808E+13
24000.994,-1.73596E+13
25816.072,-1.73384E+13
26698.846,-1.73172E+13
27139.91,-1.7296E+13
30538.76,-1.72748E+13
26809.357,-1.72536E+13
24748.699,-1.72324E+13
22568.998,-1.72112E+13
24082.084,-1.719E+13
23087.48,-1.71688E+13
27545.814,-1.71477E+13
26792.221,-1.71265E+13
23817.795,-1.71053E+13
22651.076,-1.70841E+13
22359.09,-1.70629E+13
27566.016,-1.70417E+13
28276.404,-1.70205E+13
27041.527,-1.69993E+13
23244.355,-1.69781E+13
22900.299,-1.69569E+13
22572.473,-1.69357E+13
23412.531,-1.69145E+13
23792.486,-1.68933E+13
23647.975,-1.68721E+13
23811.459,-1.68509E+13
22057.479,-1.68297E+13
22770.172,-1.68085E+13
20003.939,-1.67873E+13
21667.527,-1.67661E+13
16701.057,-1.67449E+13
20454.75,-1.67237E+13
22127.123,-1.67025E+13
24357.611,-1.66813E+13
23927.994,-1.66601E+13
20182.049,-1.66389E+13
21238.713,-1.66177E+13
21852.377,-1.65965E+13
22137.879,-1.65753E+13
18465.023,-1.65541E+13
18362.566,-1.65329E+13
17936.412,-1.65117E+13
19184.824,-1.64905E+13
20748.211,-1.64693E+13
20626.941,-1.64481E+13
20425.148,-1.64269E+13
26320.455,-1.64057E+13
27020.416,-1.63845E+13
25471.242,-1.63633E+13
23568.023,-1.63421E+13
23874.895,-1.63209E+13
24557.643,-1.62997E+13
25027.488,-1.62785E+13
27928.395,-1.62573E+13
26302.346,-1.62361E+13
26947.787,-1.6215E+13
29831.059,-1.61938E+13
29712.053,-1.61726E+13
28964.186,-1.61514E+13
23184.537,-1.61302E+13
23441.096,-1.6109E+13
22785.371,-1.60878E+13
23298.652,-1.60666E+13
25937.51,-1.60454E+13
28745.287,-1.60242E+13
31155.975,-1.6003E+13
32498.354,-1.59818E+13
33964.406,-1.59606E+13
33618.422,-1.59394E+13
37184.484,-1.59182E+13
36198.707,-1.5897E+13
33767.93,-1.58758E+13
28570.443,-1.58546E+13
27387.889,-1.58334E+13
27355.4,-1.58122E+13
28355.639,-1.5791E+13
32522.676,-1.57698E+13
31991.443,-1.57486E+13
31447.033,-1.57274E+13
34818.996,-1.57062E+13
33479.426,-1.5685E+13
29718.23,-1.56638E+13
37775.52,-1.56426E+13
39376.195,-1.56214E+13
38038.656,-1.56002E+13
37554.602,-1.5579E+13
38618.328,-1.55578E+13
37390.555,-1.55366E+13
44662.293,-1.55154E+13
42064.469,-1.54942E+13
39099.293,-1.5473E+13
49830.812,-1.54518E+13
48460.504,-1.54306E+13
45813.828,-1.54094E+13
38585.051,-1.53882E+13
42820.477,-1.5367E+13
41845.41,-1.53458E+13
38096.223,-1.53246E+13
32985.754,-1.53035E+13
28105.682,-1.52823E+13
35679.168,-1.52611E+13
42140.309,-1.52399E+13
42273.574,-1.52187E+13
39554,-1.51975E+13
40475.59,-1.51763E+13
39986.105,-1.51551E+13
36890.969,-1.51339E+13
37054.965,-1.51127E+13
34828.422,-1.50915E+13
36914.828,-1.50703E+13
37881.766,-1.50491E+13
36241.691,-1.50279E+13
42558.258,-1.50067E+13
46908.668,-1.49855E+13
49152.746,-1.49643E+13
51304.793,-1.49431E+13
53170.105,-1.49219E+13
52359.844,-1.49007E+13
40325.246,-1.48795E+13
40365.277,-1.48583E+13
48893.641,-1.48371E+13
51271.094,-1.48159E+13
52803.34,-1.47947E+13
55116.609,-1.47735E+13
57871.367,-1.47523E+13
62497.602,-1.47311E+13
58083.129,-1.47099E+13
56208.539,-1.46887E+13
49100.473,-1.46675E+13
36712.531,-1.46463E+13
43973.617,-1.46251E+13
50177.473,-1.46039E+13
48967.586,-1.45827E+13
52912.332,-1.45615E+13
45710.746,-1.45403E+13
43207.801,-1.45191E+13
46809.855,-1.44979E+13
57985.188,-1.44767E+13
54906.891,-1.44555E+13
56778.617,-1.44343E+13
55333.012,-1.44131E+13
55849.754,-1.4392E+13
64869.84,-1.43708E+13
65802.781,-1.43496E+13
69571.016,-1.43284E+13
66203.242,-1.43072E+13
61610.523,-1.4286E+13
61064.328,-1.42648E+13
64318.336,-1.42436E+13
54489.68,-1.42224E+13
52032.16,-1.42012E+13
54598.941,-1.418E+13
48148.531,-1.41588E+13
57728.625,-1.41376E+13
53910.977,-1.41164E+13
53566.953,-1.40952E+13
49533.293,-1.4074E+13
65018.008,-1.40528E+13
72274.688,-1.40316E+13
63105.867,-1.40104E+13
52518.367,-1.39892E+13
61907.203,-1.3968E+13
64447.082,-1.39468E+13
60631.844,-1.39256E+13
85668.969,-1.39044E+13
62068.992,-1.38832E+13
75095.523,-1.3862E+13
103781.84,-1.38408E+13
96075.984,-1.38196E+13
91023.641,-1.37984E+13
91178.508,-1.37772E+13
85654.398,-1.3756E+13
78247.945,-1.37348E+13
90472.055,-1.37136E+13
72165.016,-1.36924E+13
66915.242,-1.36712E+13
78844.688,-1.365E+13
98388.836,-1.36288E+13
80264.688,-1.36076E+13
78037.508,-1.35864E+13
76386.117,-1.35652E+13
87316.141,-1.3544E+13
82028.18,-1.35228E+13
98805.016,-1.35016E+13
89765.523,-1.34805E+13
105001.88,-1.34593E+13
86747.531,-1.34381E+13
115067.08,-1.34169E+13
101945.5,-1.33957E+13
66277.117,-1.33745E+13
77852.945,-1.33533E+13
86288.797,-1.33321E+13
106050.21,-1.33109E+13
113867.02,-1.32897E+13
99289.367,-1.32685E+13
97775.016,-1.32473E+13
101643.33,-1.32261E+13
100501.11,-1.32049E+13
93688.961,-1.31837E+13
123586.47,-1.31625E+13
118173.27,-1.31413E+13
146337.73,-1.31201E+13
150859.56,-1.30989E+13
197314.25,-1.30777E+13
143902.42,-1.30565E+13
105186.95,-1.30353E+13
131073.39,-1.30141E+13
143198.47,-1.29929E+13
66454.984,-1.29717E+13
124191.6,-1.29505E+13
122381.8,-1.29293E+13
101640.53,-1.29081E+13
87865.734,-1.28869E+13
181401.36,-1.28657E+13
177516.08,-1.28445E+13
144149.61,-1.28233E+13
103163.66,-1.28021E+13
180045.5,-1.27809E+13
134693.11,-1.27597E+13
148690.19,-1.27385E+13
124374.39,-1.27173E+13
120592.07,-1.26961E+13
136144.86,-1.26749E+13
255916.81,-1.26537E+13
326718.12,-1.26325E+13
302953.69,-1.26113E+13
271502.91,-1.25901E+13
287084.06,-1.2569E+13
264817.09,-1.25478E+13
235764.53,-1.25266E+13
299396.59,-1.25054E+13
251339.53,-1.24842E+13
175829.38,-1.2463E+13
245959.03,-1.24418E+13
235099.53,-1.24206E+13
334993.41,-1.23994E+13
319701.59,-1.23782E+13
259731.94,-1.2357E+13
301246.72,-1.23358E+13
399378.28,-1.23146E+13
408574.69,-1.22934E+13
362920.78,-1.22722E+13
420453.34,-1.2251E+13
370521.56,-1.22298E+13
458236.84,-1.22086E+13
494553.66,-1.21874E+13
480850.03,-1.21662E+13
468219.28,-1.2145E+13
452001.62,-1.21238E+13
552840.25,-1.21026E+13
633189.56,-1.20814E+13
510303.44,-1.20602E+13
396929.5,-1.2039E+13
378572.75,-1.20178E+13
442899.09,-1.19966E+13